File: Example_Cases/TGA/Experimental_Data/gypsum_5Kmin.csv
"T, K","w"
361.38,0.997653
366.03,0.997317
370.68,0.996647
375.31,0.995808
379.89,0.994299
384.41,0.991616
388.83,0.987425
393.12,0.981221
397.24,0.971831
401.19,0.958585
404.89,0.940476
408.57,0.917002
413.06,0.892857
418.55,0.87391
424.72,0.863514
430.42,0.855969
435.42,0.846579
440.19,0.835681
445.14,0.824447
451.04,0.818913
456.9,0.817572
462.3,0.816734
467.48,0.816231
472.58,0.815895
477.62,0.8157277
482.63,0.81556
487.64,0.815392
492.63,0.815225
497.64,0.815057